Wavelength (nm),Reflectance (%
100,.80
150,.73
200,.80
250,.875
300,.90
350,.91
400,.92
450,.925
500,.93
550,.925
600,.92
650,.91
700,.90
750,.88
800,.86
850,.86
900,.90
1000,.94
1100,.96
1200,.97
1300,.975
1500,.975
1750,.98
2000,.98
